Wavelength (Ang),Flux
1570.68,9.04740e-17
1572.44,-8.03841e-15
1574.20,-1.32142e-15
1575.96,-2.69704e-15
1577.72,8.69634e-17
1579.48,-2.85991e-15
1581.24,-2.15825e-15
1583.00,5.98376e-16
1584.76,1.34501e-15
1586.52,7.27834e-16
1588.27,8.93118e-16
1590.03,-1.21647e-15
1591.79,1.52692e-15
1593.55,-9.40973e-16
1595.30,5.18370e-16
1597.06,-4.33763e-16
1598.81,3.93800e-16
1600.57,-1.01711e-16
1602.32,6.42842e-18
1604.08,1.62326e-16
1605.83,7.24636e-17
1607.58,6.36658e-17
1609.34,1.63378e-16
1611.09,2.93023e-16
1612.84,2.24794e-16
1614.59,8.50584e-17
1616.34,4.09600e-17
1618.09,1.45384e-16
1619.84,1.01812e-16
1621.60,6.35569e-17
1623.35,3.05223e-17
1625.09,-1.04622e-16
1626.84,1.74498e-16
1628.59,2.43297e-17
1630.34,-1.96942e-17
1632.09,7.99703e-17
1633.84,-1.72357e-17
1635.58,5.52163e-18
1637.33,6.74408e-17
1639.08,4.44671e-17
1640.82,4.22901e-17
1642.57,-3.12654e-17
1644.31,3.85246e-17
1646.06,4.14329e-18
1647.80,-1.19078e-17
1649.55,3.88210e-18
1651.29,-1.12824e-17
1653.04,-2.57754e-17
1654.78,3.24486e-17
1656.52,-1.05305e-17
1658.27,1.70570e-17
1660.01,-2.31485e-17
1661.75,3.20269e-18
1663.49,-9.35400e-18
1665.23,-3.34387e-17
1666.97,7.45194e-17
1668.72,2.63708e-17
1670.46,9.80470e-18
1672.20,5.49682e-19
1673.94,5.41031e-19
1675.68,-1.73726e-17
1677.41,-3.51714e-17
1679.15,4.48550e-17
1680.89,1.80404e-17
1682.63,3.49027e-17
1684.37,-3.32141e-17
1686.10,-4.08086e-17
1687.84,1.67032e-17
1689.58,-1.55591e-17
1691.31,-1.54027e-17
1693.05,4.40374e-19
1694.79,-4.61168e-17
1696.52,3.09571e-17
1698.26,4.12232e-19
1699.99,-3.65181e-17
1701.73,7.68061e-18
1703.46,4.35539e-17
1705.20,-2.09662e-17
1706.93,1.44658e-17
1708.66,-3.45402e-17
1710.40,3.60015e-19
1712.13,4.82759e-17
1713.86,3.48068e-19
1715.59,3.42653e-19
1717.33,2.04088e-17
1719.06,4.01122e-17
1720.79,6.90332e-18
1722.52,-1.27519e-17
1724.25,1.33410e-17
1725.98,3.11747e-19
1727.71,-1.89937e-17
1729.44,-2.52072e-17
1731.17,1.93272e-17
1732.90,2.93562e-19
1734.63,-2.52347e-17
1736.36,6.71378e-18
1738.09,6.73050e-18
1739.81,-2.54021e-17
1741.54,-4.43021e-17
1743.27,-2.49069e-17
1745.00,-2.46905e-17
1746.73,-5.94832e-18
1748.45,-5.94677e-18
1750.18,2.55771e-19
1751.91,-2.43883e-17
1753.63,-5.87248e-18
1755.36,-5.83634e-18
1757.08,3.65114e-17
1758.81,-1.17836e-17
1760.53,6.19248e-18
1762.26,2.22177e-19
1763.98,2.16857e-19
1765.71,-5.58990e-18
1767.43,1.17418e-17
1769.16,-1.12752e-17
1770.88,1.73343e-17
1772.60,4.56655e-17
1774.33,1.90717e-19
1776.05,1.71017e-17
1777.77,-2.22634e-17
1779.49,-1.65836e-17
1781.22,-5.38365e-18
1782.94,-2.20157e-17
1784.66,-5.37612e-18
1786.38,1.64677e-19
1788.10,-5.38886e-18
1789.82,-5.37412e-18
1791.55,-3.28202e-17
1793.27,2.74635e-17
1794.99,1.10410e-17
1796.71,1.41832e-19
1798.43,-1.07733e-17
1800.15,1.10322e-17
1801.87,-1.61248e-17
1803.59,-5.23286e-18
1805.30,-2.10299e-17
1807.02,5.34278e-18
1808.74,-1.02723e-17
1810.46,-5.07768e-18
1812.18,-1.03083e-17
1813.90,-1.03814e-17
1815.61,-1.57572e-17
1817.33,2.67050e-17
1819.05,-1.59488e-17
1820.77,9.17691e-20
1822.48,1.08190e-17
1824.20,-3.21100e-17
1825.92,-2.67653e-17
1827.63,5.45496e-18
1829.35,-1.07038e-17
1831.07,5.47491e-18
1832.78,-1.61874e-17
1834.50,2.17584e-17
1836.21,-5.36451e-18
1837.93,5.48917e-18
1839.64,-5.41487e-18
1841.36,1.66281e-17
1843.07,4.62191e-20
1844.79,-2.79950e-17
1846.50,-1.11446e-17
1848.22,4.99990e-17
1849.93,1.65457e-17
1851.65,-3.27889e-17
1853.36,-5.41727e-18
1855.07,1.78977e-20
1856.79,-5.34019e-18
1858.50,5.29342e-17
1860.21,-2.61436e-17
1861.93,-1.55538e-17
1863.64,-5.17433e-18
1865.35,-2.07793e-17
1867.06,-2.10163e-17
1868.78,3.19110e-17
1870.49,-1.08004e-17
1872.20,-1.08885e-17
1873.91,2.18217e-17
1875.62,2.19402e-17
1877.34,5.50967e-18
1879.05,1.11959e-17
1880.76,1.13295e-17
1882.47,4.57543e-17
1884.18,-1.14586e-17
1885.89,-5.68021e-20
1887.60,1.65144e-17
1889.31,-1.09608e-17
1891.02,1.07778e-17
1892.73,-2.72262e-17
1894.44,5.39032e-18
1896.15,3.84565e-17
1897.86,5.44422e-18
1899.57,1.64354e-17
1901.28,1.07701e-17
1902.99,2.11805e-17
1904.70,-5.31612e-18
1906.41,2.05595e-17
1908.12,1.02470e-17
1909.83,2.07748e-17
1911.54,2.09689e-17
1913.25,-1.20017e-19
1914.96,-1.06091e-17
1916.66,5.04066e-18
1918.37,1.00280e-17
1920.08,-2.01691e-17
1921.79,9.81585e-18
1923.50,-1.37675e-19
1925.20,-2.01728e-17
1926.91,-1.47539e-19
1928.62,-1.52181e-19
1930.33,1.50128e-17
1932.04,-1.60155e-19
1933.74,-1.02069e-17
1935.45,4.83928e-18
1937.16,-1.01733e-17
1938.87,-1.01848e-17
1940.57,-2.01972e-17
1942.28,-2.01889e-17
1943.99,1.47935e-17
1945.69,9.81985e-18
1947.40,-1.52901e-17
1949.11,-1.03396e-17
1950.81,3.03079e-17
1952.52,-5.30712e-18
1954.23,-5.29390e-18
1955.93,-5.27554e-18
1957.64,9.82249e-18
1959.35,-5.22785e-18
1961.05,1.47270e-17
1962.76,-1.51803e-17
1964.46,-1.02012e-17
1966.17,9.73171e-18
1967.88,-3.51767e-17
1969.58,9.71037e-18
1971.29,-1.50840e-17
1972.99,-1.00242e-17
1974.70,-5.07181e-18
1976.40,-2.57515e-19
1978.11,1.39074e-17
1979.81,-9.69094e-18
1981.52,-9.70774e-18
1983.22,-1.91647e-17
1984.93,1.85009e-17
1986.64,-9.55464e-18
1988.34,-9.42577e-18
1990.05,-2.74212e-17
1991.75,-9.26017e-18
1993.46,2.20692e-17
1995.16,8.63775e-18
1996.87,1.75207e-17
1998.57,-9.16441e-18
2000.28,1.29142e-17
2001.98,-2.94568e-19
2003.69,-4.60334e-18
2005.39,-1.30781e-17
2007.09,1.23362e-17
2008.80,-2.11093e-17
2010.50,1.19984e-17
2012.21,1.17524e-17
2013.91,2.70992e-17
2015.62,-1.17375e-17
2017.32,3.46883e-18
2019.03,-4.01727e-18
2020.73,-1.52456e-17
2022.44,-2.94700e-19
2024.14,-7.80073e-18
2025.84,3.43833e-18
2027.55,7.14696e-18
2029.25,-4.02504e-18
2030.96,7.13774e-18
2032.66,-3.14429e-19
2034.37,1.09220e-17
2036.07,3.43048e-18
2037.78,-3.26052e-19
2039.48,2.96514e-17
2041.18,-4.07326e-18
2042.89,2.20750e-17
2044.59,-1.89159e-17
2046.30,1.07088e-17
2048.00,2.51019e-17
2049.71,-2.18294e-17
2051.41,-2.15316e-17
2053.11,-3.82118e-18
2054.82,1.34565e-17
2056.52,-1.05638e-17
2058.23,-1.38233e-17
2059.93,1.30014e-17
2061.64,-6.91051e-18
2063.34,-6.83830e-18
2065.05,-3.29391e-19
2066.75,-2.27938e-17
2068.46,1.24376e-17
2070.16,2.84533e-18
2071.86,-3.50200e-18
2073.57,2.82061e-18
2075.27,2.80986e-18
2076.98,1.22026e-17
2078.68,2.77127e-18
2080.39,-6.48697e-18
2082.09,-1.24224e-17
2083.80,-1.51622e-17
2085.50,-1.49149e-17
2087.21,3.13597e-17
2088.91,1.11011e-17
2090.62,5.37289e-18
2092.32,-8.90203e-18
2094.03,-8.91943e-18
2095.73,3.10077e-17
2097.44,8.13397e-18
2099.14,-1.42573e-17
2100.85,5.15160e-18
2102.55,-3.34352e-19
2104.26,2.36671e-18
2105.96,1.04773e-17
2107.67,-3.41697e-19
2109.38,7.77383e-18
2111.08,-3.44864e-19
2112.79,-5.68181e-18
2114.49,2.33898e-17
2116.20,-2.94007e-18
2117.90,-8.01855e-18
2119.61,4.70800e-18
2121.32,1.71021e-17
2123.02,4.60369e-18
2124.73,-7.70587e-18
2126.43,4.57289e-18
2128.14,-5.24967e-18
2129.85,-1.26231e-17
2131.55,9.47765e-18
2133.26,1.19033e-17
2134.97,2.09752e-18
2136.67,6.94829e-18
2138.38,1.90148e-17
2140.09,-5.16627e-18
2141.79,1.89008e-17
2143.50,2.05770e-18
2145.21,-1.00328e-17
2146.92,2.06312e-18
2148.62,9.31224e-18
2150.33,-7.57335e-18
2152.04,6.78578e-18
2153.75,1.99888e-18
2155.45,-7.37145e-18
2157.16,-2.68513e-18
2158.87,-2.68330e-18
2160.58,-3.64202e-19
2162.29,-5.03171e-18
2163.99,-3.69576e-19
2165.70,-2.69254e-18
2167.41,-3.69596e-19
2169.12,-4.93598e-18
2170.83,-7.17227e-18
2172.54,-9.39482e-18
2174.25,-4.86855e-18
2175.96,-4.85724e-18
2177.66,-7.09151e-18
2179.37,-4.83961e-18
2181.08,1.84940e-18
2182.79,-9.20904e-18
2184.50,8.41242e-18
2186.21,-6.94231e-18
2187.92,8.37131e-18
2189.63,6.17781e-18
2191.34,-5.28601e-18
2193.05,5.60234e-18
2194.76,1.10374e-17
2196.47,8.34880e-18
2198.18,-1.08225e-17
2199.90,2.22101e-17
2201.61,5.65908e-18
2203.32,-5.31116e-18
2205.03,-1.06685e-17
2206.74,2.82878e-18
2208.45,2.82514e-18
2210.16,2.83408e-18
2211.88,-7.99008e-18
2213.59,5.58229e-18
2215.30,5.58076e-18
2217.01,1.36873e-17
2218.72,1.29955e-19
2220.44,8.12792e-18
2222.15,1.23649e-19
2223.86,1.20547e-19
2225.58,-4.02643e-19
2227.29,7.85077e-18
2229.00,-8.58688e-18
2230.72,3.67063e-18
2232.43,-2.43280e-18
2234.15,-6.50611e-18
2235.86,-4.48178e-18
2237.57,-2.45238e-18
2239.29,1.18805e-17
2241.00,-4.15035e-19
2242.72,-4.51751e-18
2244.43,3.67100e-18
2246.15,3.65325e-18
2247.86,-2.44404e-18
2249.58,-4.18103e-19
2251.29,1.59765e-18
2253.01,1.60081e-18
2254.73,-8.56182e-18
2256.44,-1.06329e-17
2258.16,-4.31247e-19
2259.88,-6.49874e-18
2261.59,-6.45365e-18
2263.31,-1.04039e-17
2265.03,3.54613e-18
2266.75,-4.39687e-18
2268.46,-4.31253e-19
2270.18,-2.41736e-18
2271.90,1.54987e-18
2273.62,-4.38124e-19
2275.34,-1.43863e-17
2277.06,-2.43776e-18
2278.77,7.52850e-18
2280.49,-2.43251e-18
2282.21,-2.42103e-18
2283.93,-4.44406e-19
2285.65,-8.28571e-18
2287.37,1.52435e-17
2289.09,-4.49459e-19
2290.81,3.48864e-18
2292.53,-2.42838e-18
2294.26,1.51614e-18
2295.98,-4.57430e-19
2297.70,-2.41962e-18
2299.42,-6.31877e-18
2301.14,1.49027e-18
2302.86,-6.29409e-18
2304.59,-6.30686e-18
2306.31,-8.29418e-18
2308.03,-6.37706e-18
2309.75,-1.03521e-17
2311.48,1.49669e-18
2313.20,-2.42948e-18
2314.92,5.33728e-18
2316.65,-4.66897e-19
2318.37,1.43793e-18
2320.10,1.43179e-18
2321.82,-4.67067e-19
2323.55,-2.37198e-18
2325.27,-6.21155e-18
2327.00,-2.40662e-18
2328.72,-4.84195e-19
2330.45,-1.01897e-17
2332.18,-6.28894e-18
2333.90,-4.85032e-19
2335.63,-4.27228e-18
2337.36,-4.21129e-18
2339.08,-7.83920e-18
2340.81,3.18914e-18
2342.54,1.05129e-17
2344.27,-4.15692e-18
2346.00,1.37181e-18
2347.72,6.91929e-18
2349.45,-1.96415e-20
2351.18,1.13047e-17
2352.91,-6.71950e-18
2354.64,4.39657e-18
2356.37,-2.22815e-18
2358.10,-2.23746e-18
2359.83,-2.24951e-18
2361.56,4.42854e-18
2363.30,-6.71391e-18
2365.03,1.32711e-17
2366.76,-2.23572e-18
2368.49,-3.55164e-20
2370.22,4.31013e-18
2371.96,-3.82147e-20
2373.69,-2.20531e-18
2375.42,2.12401e-18
2377.16,-1.08771e-17
2378.89,3.57138e-18
2380.62,-1.67027e-17
2382.36,-8.00941e-18
2384.09,4.28786e-18
2385.83,4.26944e-18
2387.56,-5.10579e-20
2389.30,4.21303e-18
2391.03,-4.29539e-18
2392.77,-5.45579e-20
2394.51,-5.60220e-20
2396.24,1.05346e-17
2397.98,9.09174e-18
2399.72,3.44132e-18
2401.46,-7.72136e-18
2403.20,6.18051e-18
2404.93,2.01384e-18
2406.67,1.44584e-17
2408.41,1.03047e-17
2410.15,-1.45630e-17
2411.89,6.13346e-18
2413.63,6.11113e-18
2415.37,1.01840e-17
2417.11,-1.02976e-17
2418.85,1.42171e-17
2420.60,-1.02675e-17
2422.34,6.00110e-18
2424.08,-2.08785e-18
